SpectraSuite Data File
++++++++++++++++++++++++++++++++++++
Date: Thu Aug 15 16:32:51 PDT 2024
User: Miriad Lab
Dark Spectrum Present: No
Reference Spectrum Present: No
Number of Sampled Component Spectra: 1
Spectrometers: USB4H10946
Integration Time (usec): 100000 (USB4H10946)
Spectra Averaged: 1 (USB4H10946)
Boxcar Smoothing: 0 (USB4H10946)
Correct for Electrical Dark: No (USB4H10946)
Strobe/Lamp Enabled: No (USB4H10946)
Correct for Detector Non-linearity: No (USB4H10946)
Correct for Stray Light: No (USB4H10946)
Number of Pixels in Processed Spectrum: 3648
>>>>>Begin Processed Spectral Data<<<<<
546.08	1185.77
546.19	1185.77
546.29	1185.77
546.40	1241.07
546.50	1179.63
546.61	1411.05
546.71	1437.67
546.81	1382.38
546.92	1452.01
547.02	1501.16
547.13	1380.33
547.23	1419.24
547.33	1462.25
547.44	1558.50
547.54	1333.23
547.65	1462.25
547.75	1486.83
547.85	1398.76
547.96	1411.05
548.06	1421.29
548.17	1366.00
548.27	1378.28
548.37	1363.95
548.48	1275.88
548.58	1488.87
548.69	1339.37
548.79	1378.28
548.89	1427.43
549.00	1435.63
549.10	1447.91
549.20	1456.11
549.31	1415.15
549.41	1492.97
549.52	1325.04
549.62	1372.14
549.72	1322.99
549.83	1495.02
549.93	1406.95
550.04	1429.48
550.14	1482.73
550.24	1415.15
550.35	1392.62
550.45	1415.15
550.55	1400.81
550.66	1396.71
550.76	1468.39
550.87	1374.19
550.97	1351.66
551.07	1429.48
551.18	1538.02
551.28	1419.24
551.38	1415.15
551.49	1288.17
551.59	1503.21
551.69	1390.57
551.80	1431.53
551.90	1298.41
552.01	1390.57
552.11	1376.24
552.21	1427.43
552.32	1406.95
552.42	1497.07
552.52	1357.80
552.63	1452.01
552.73	1447.91
552.83	1449.96
552.94	1419.24
553.04	1427.43
553.15	1433.58
553.25	1406.95
553.35	1427.43
553.46	1478.63
553.56	1460.20
553.66	1355.76
553.77	1382.38
553.87	1370.09
553.97	1390.57
554.08	1335.28
554.18	1394.67
554.28	1372.14
554.39	1466.35
554.49	1386.47
554.59	1382.38
554.70	1341.42
554.80	1402.86
554.90	1402.86
555.01	1398.76
555.11	1419.24
555.21	1468.39
555.32	1398.76
555.42	1357.80
555.52	1411.05
555.63	1415.15
555.73	1341.42
555.83	1529.83
555.94	1404.91
556.04	1417.19
556.14	1378.28
556.25	1411.05
556.35	1433.58
556.45	1404.91
556.56	1368.04
556.66	1396.71
556.76	1388.52
556.87	1415.15
556.97	1415.15
557.07	1402.86
557.18	1398.76
557.28	1568.74
557.38	1437.67
557.49	1396.71
557.59	1443.82
557.69	1406.95
557.80	1390.57
557.90	1429.48
558.00	1335.28
558.11	1441.77
558.21	1396.71
558.31	1404.91
558.41	1413.10
558.52	1386.47
558.62	1431.53
558.72	1484.78
558.83	1562.60
558.93	1507.30
559.03	1509.35
559.14	1486.83
559.24	1345.52
559.34	1437.67
559.45	1347.56
559.55	1425.39
559.65	1419.24
559.75	1292.27
559.86	1521.64
559.96	1294.32
560.06	1486.83
560.17	1345.52
560.27	1355.76
560.37	1460.20
560.48	1339.37
560.58	1378.28
560.68	1411.05
560.78	1411.05
560.89	1476.59
560.99	1482.73
561.09	1429.48
561.20	1386.47
561.30	1538.02
561.40	1501.16
561.50	1429.48
561.61	1386.47
561.71	1519.59
561.81	1454.06
561.92	1380.33
562.02	1423.34
562.12	1437.67
562.22	1435.63
562.33	1490.92
562.43	1523.69
562.53	1427.43
562.63	1462.25
562.74	1386.47
562.84	1292.27
562.94	1337.32
563.05	1357.80
563.15	1386.47
563.25	1492.97
563.35	1310.70
563.46	1314.80
563.56	1388.52
563.66	1392.62
563.76	1306.60
563.87	1325.04
563.97	1431.53
564.07	1384.43
564.18	1538.02
564.28	1509.35
564.38	1413.10
564.48	1339.37
564.59	1468.39
564.69	1449.96
564.79	1320.94
564.89	1419.24
565.00	1349.61
565.10	1480.68
565.20	1409.00
565.30	1474.54
565.41	1419.24
565.51	1476.59
565.61	1372.14
565.71	1370.09
565.82	1357.80
565.92	1419.24
566.02	1394.67
566.12	1476.59
566.23	1402.86
566.33	1413.10
566.43	1495.02
566.53	1398.76
566.64	1492.97
566.74	1372.14
566.84	1503.21
566.94	1339.37
567.05	1497.07
567.15	1402.86
567.25	1495.02
567.35	1347.56
567.45	1392.62
567.56	1437.67
567.66	1456.11
567.76	1406.95
567.86	1363.95
567.97	1345.52
568.07	1476.59
568.17	1386.47
568.27	1513.45
568.38	1474.54
568.48	1484.78
568.58	1466.35
568.68	1527.78
568.78	1505.26
568.89	1392.62
568.99	1419.24
569.09	1538.02
569.19	1366.00
569.30	1390.57
569.40	1406.95
569.50	1441.77
569.60	1320.94
569.70	1417.19
569.81	1398.76
569.91	1460.20
570.01	1404.91
570.11	1542.12
570.21	1447.91
570.32	1503.21
570.42	1353.71
570.52	1421.29
570.62	1431.53
570.72	1374.19
570.83	1370.09
570.93	1527.78
571.03	1337.32
571.13	1372.14
571.24	1423.34
571.34	1429.48
571.44	1441.77
571.54	1306.60
571.64	1480.68
571.75	1353.71
571.85	1527.78
571.95	1347.56
572.05	1345.52
572.15	1349.61
572.25	1445.87
572.36	1431.53
572.46	1492.97
572.56	1347.56
572.66	1554.41
572.76	1370.09
572.87	1439.72
572.97	1492.97
573.07	1382.38
573.17	1396.71
573.27	1402.86
573.38	1372.14
573.48	1497.07
573.58	1400.81
573.68	1386.47
573.78	1497.07
573.88	1470.44
573.99	1533.93
574.09	1386.47
574.19	1488.87
574.29	1392.62
574.39	1351.66
574.50	1331.18
574.60	1425.39
574.70	1384.43
574.80	1419.24
574.90	1413.10
575.00	1345.52
575.11	1347.56
575.21	1495.02
575.31	1452.01
575.41	1480.68
575.51	1435.63
575.61	1398.76
575.72	1486.83
575.82	1456.11
575.92	1374.19
576.02	1400.81
576.12	1445.87
576.22	1388.52
576.33	1406.95
576.43	1370.09
576.53	1380.33
576.63	1417.19
576.73	1423.34
576.83	1435.63
576.93	1476.59
577.04	1382.38
577.14	1402.86
577.24	1564.65
577.34	1896.42
577.44	1843.17
577.54	1443.82
577.64	1390.57
577.75	1384.43
577.85	1265.64
577.95	1437.67
578.05	1359.85
578.15	1398.76
578.25	1435.63
578.36	1472.49
578.46	1417.19
578.56	1431.53
578.66	1419.24
578.76	1380.33
578.86	1353.71
578.96	1402.86
579.06	1341.42
579.17	1394.67
579.27	1460.20
579.37	1404.91
579.47	1359.85
579.57	1519.59
579.67	1329.13
579.77	1431.53
579.88	1488.87
579.98	1390.57
580.08	1361.90
580.18	1361.90
580.28	1482.73
580.38	1404.91
580.48	1380.33
580.58	1423.34
580.69	1392.62
580.79	1355.76
580.89	1472.49
580.99	1490.92
581.09	1402.86
581.19	1415.15
581.29	1474.54
581.39	1441.77
581.49	1507.30
581.60	1423.34
581.70	1345.52
581.80	1464.30
581.90	1437.67
582.00	1456.11
582.10	1378.28
582.20	1495.02
582.30	1380.33
582.40	1402.86
582.51	1570.79
582.61	1462.25
582.71	1488.87
582.81	1617.90
582.91	1736.68
583.01	1535.98
583.11	1431.53
583.21	1421.29
583.31	1380.33
583.41	1366.00
583.52	1404.91
583.62	1452.01
583.72	1509.35
583.82	1415.15
583.92	1439.72
584.02	1411.05
584.12	1568.74
584.22	1366.00
584.32	1466.35
584.42	1404.91
584.52	1462.25
584.63	1361.90
584.73	1419.24
584.83	1435.63
584.93	1402.86
585.03	1470.44
585.13	1509.35
585.23	1587.18
585.33	1452.01
585.43	1402.86
585.53	1503.21
585.63	1507.30
585.73	1499.11
585.83	1812.45
585.94	2588.63
586.04	12175.17
586.14	27194.98
586.24	17422.07
586.34	3866.56
586.44	2082.78
586.54	1710.05
586.64	1554.41
586.74	1439.72
586.84	1472.49
586.94	1415.15
587.04	1417.19
587.14	1402.86
587.24	1353.71
587.35	1484.78
587.45	1468.39
587.55	1421.29
587.65	1398.76
587.75	1474.54
587.85	1513.45
587.95	1413.10
588.05	1480.68
588.15	1576.94
588.25	1568.74
588.35	1458.15
588.45	1382.38
588.55	1415.15
588.65	1533.93
588.75	1462.25
588.85	1556.46
588.95	2801.62
589.05	5625.77
589.15	4427.71
589.26	1882.08
589.36	1507.30
589.46	1554.41
589.56	1474.54
589.66	1445.87
589.76	1490.92
589.86	1517.54
589.96	1388.52
590.06	1368.04
590.16	1355.76
590.26	1406.95
590.36	1542.12
590.46	1607.66
590.56	1470.44
590.66	1417.19
590.76	1337.32
590.86	1390.57
590.96	1544.17
591.06	1462.25
591.16	1648.61
591.26	1513.45
591.36	1464.30
591.46	1535.98
591.56	1492.97
591.66	1505.26
591.76	1402.86
591.86	1404.91
591.96	1452.01
592.06	1378.28
592.16	1509.35
592.26	1398.76
592.36	1417.19
592.46	1431.53
592.57	1394.67
592.67	1560.55
592.77	1462.25
592.87	1366.00
592.97	1404.91
593.07	1370.09
593.17	1486.83
593.27	1361.90
593.37	1468.39
593.47	1548.26
593.57	1394.67
593.67	1398.76
593.77	1390.57
593.87	1374.19
593.97	1394.67
594.07	1370.09
594.17	1507.30
594.27	1419.24
594.37	1415.15
594.47	1413.10
594.57	1384.43
594.67	1445.87
594.77	1482.73
594.87	1419.24
594.97	1447.91
595.07	1583.08
595.17	2648.02
595.27	7581.58
595.37	8761.21
595.47	3463.12
595.57	1800.16
595.67	1533.93
595.77	1525.74
595.87	1511.40
595.96	1380.33
596.06	1464.30
596.16	1464.30
596.26	1404.91
596.36	1415.15
596.46	1509.35
596.56	1427.43
596.66	1402.86
596.76	1439.72
596.86	1413.10
596.96	1474.54
597.06	1460.20
597.16	1456.11
597.26	1427.43
597.36	1576.94
597.46	1531.88
597.56	1390.57
597.66	1482.73
597.76	1482.73
597.86	1452.01
597.96	1478.63
598.06	1406.95
598.16	1415.15
598.26	2506.71
598.36	3641.29
598.46	2795.48
598.56	1689.57
598.66	1527.78
598.76	1554.41
598.86	1474.54
598.96	1501.16
599.06	1456.11
599.16	1322.99
599.26	1458.15
599.35	1486.83
599.45	1429.48
599.55	1433.58
599.65	1562.60
599.75	1550.31
599.85	1419.24
599.95	1474.54
600.05	1570.79
600.15	1411.05
600.25	1480.68
600.35	1392.62
600.45	1409.00
600.55	1427.43
600.65	1441.77
600.75	1380.33
600.85	1333.23
600.95	1437.67
601.05	1511.40
601.14	1437.67
601.24	1578.98
601.34	1540.07
601.44	1437.67
601.54	1394.67
601.64	1345.52
601.74	1445.87
601.84	1396.71
601.94	1460.20
602.04	1492.97
602.14	1443.82
602.24	1452.01
602.34	1445.87
602.44	1368.04
602.54	1454.06
602.63	1452.01
602.73	1480.68
602.83	1511.40
602.93	1347.56
603.03	1431.53
603.13	1331.18
603.23	1388.52
603.33	1378.28
603.43	1363.95
603.53	1447.91
603.63	1673.19
603.73	2832.34
603.82	3712.97
603.92	2420.70
604.02	1572.84
604.12	1390.57
604.22	1443.82
604.32	1435.63
604.42	1415.15
604.52	1355.76
604.62	1337.32
604.72	1433.58
604.82	1423.34
604.91	1423.34
605.01	1386.47
605.11	1382.38
605.21	1421.29
605.31	1409.00
605.41	1480.68
605.51	1435.63
605.61	1445.87
605.71	1409.00
605.81	1384.43
605.90	1458.15
606.00	1464.30
606.10	1388.52
606.20	1345.52
606.30	1361.90
606.40	1427.43
606.50	1394.67
606.60	1380.33
606.70	1427.43
606.79	1497.07
606.89	1404.91
606.99	1488.87
607.09	1525.74
607.19	1413.10
607.29	1484.78
607.39	1484.78
607.49	1454.06
607.59	1501.16
607.68	1415.15
607.78	1419.24
607.88	1439.72
607.98	1546.22
608.08	3205.07
608.18	9135.99
608.28	8789.88
608.38	2987.99
608.47	1759.21
608.57	1470.44
608.67	1544.17
608.77	1554.41
608.87	1452.01
608.97	1464.30
609.07	1583.08
609.16	1411.05
609.26	1476.59
609.36	1402.86
609.46	1388.52
609.56	1419.24
609.66	1484.78
609.76	1361.90
609.85	1423.34
609.95	1507.30
610.05	1556.46
610.15	1808.36
610.25	4097.99
610.35	11829.07
610.45	11581.26
610.54	3868.61
610.64	2011.11
610.74	1665.00
610.84	1480.68
610.94	1429.48
611.04	1570.79
611.14	1431.53
611.23	1443.82
611.33	1413.10
611.43	1484.78
611.53	1429.48
611.63	1538.02
611.73	1372.14
611.82	1495.02
611.92	1472.49
612.02	1384.43
612.12	1445.87
612.22	1544.17
612.32	1355.76
612.41	1419.24
612.51	1462.25
612.61	1478.63
612.71	1452.01
612.81	1359.85
612.91	1454.06
613.00	1394.67
613.10	1402.86
613.20	1552.36
613.30	1470.44
613.40	1464.30
613.50	1574.89
613.59	1763.30
613.69	1611.75
613.79	1507.30
613.89	1509.35
613.99	1513.45
614.08	1386.47
614.18	1380.33
614.28	1435.63
614.38	1511.40
614.48	1402.86
614.58	1425.39
614.67	1480.68
614.77	1593.32
614.87	2486.23
614.97	7993.22
615.07	13332.28
615.16	8468.35
615.26	2830.29
615.36	1961.95
615.46	1574.89
615.56	1476.59
615.65	1460.20
615.75	1435.63
615.85	1492.97
615.95	1509.35
616.05	1503.21
616.14	1394.67
616.24	1404.91
616.34	1476.59
616.44	1474.54
616.54	1435.63
616.63	1447.91
616.73	1380.33
616.83	1540.07
616.93	2054.11
617.03	4691.90
617.12	6621.08
617.22	4202.43
617.32	2021.35
617.42	1603.56
617.52	1558.50
617.61	1464.30
617.71	1361.90
617.81	1456.11
617.91	1531.88
618.00	1353.71
618.10	1433.58
618.20	1472.49
618.30	1345.52
618.40	1388.52
618.49	1421.29
618.59	1462.25
618.69	1300.46
618.79	1476.59
618.88	1597.42
618.98	1628.14
619.08	1454.06
619.18	1456.11
619.28	1411.05
619.37	1525.74
619.47	1366.00
619.57	1458.15
619.67	1363.95
619.76	1445.87
619.86	1435.63
619.96	1409.00
620.06	1402.86
620.15	1447.91
620.25	1437.67
620.35	1406.95
620.45	1447.91
620.54	1396.71
620.64	1355.76
620.74	1460.20
620.84	1380.33
620.93	1423.34
621.03	1415.15
621.13	1271.79
621.23	1421.29
621.32	1458.15
621.42	1425.39
621.52	1402.86
621.62	1472.49
621.71	1527.78
621.81	1409.00
621.91	1435.63
622.01	1533.93
622.10	1611.75
622.20	1593.32
622.30	2588.63
622.40	6272.93
622.49	6533.02
622.59	2928.60
622.69	1773.54
622.79	1601.51
622.88	1482.73
622.98	1384.43
623.08	1449.96
623.18	1353.71
623.27	1480.68
623.37	1308.65
623.47	1427.43
623.56	1423.34
623.66	1386.47
623.76	1488.87
623.86	1439.72
623.95	1386.47
624.05	1478.63
624.15	1402.86
624.25	1478.63
624.34	1404.91
624.44	1435.63
624.54	1388.52
624.63	1427.43
624.73	1402.86
624.83	1415.15
624.93	1419.24
625.02	1435.63
625.12	1421.29
625.22	1345.52
625.31	1476.59
625.41	1423.34
625.51	1413.10
625.61	1460.20
625.70	1402.86
625.80	1363.95
625.90	1382.38
625.99	1386.47
626.09	1476.59
626.19	1390.57
626.29	1458.15
626.38	1359.85
626.48	1384.43
626.58	1357.80
626.67	1351.66
626.77	1378.28
626.87	1413.10
626.96	1542.12
627.06	1658.85
627.16	2562.01
627.25	8599.42
627.35	11804.49
627.45	7430.03
627.55	2865.11
627.64	2041.82
627.74	1748.97
627.84	1484.78
627.93	1546.22
628.03	1497.07
628.13	1452.01
628.22	1368.04
628.32	1433.58
628.42	1357.80
628.51	1478.63
628.61	1400.81
628.71	1447.91
628.80	1380.33
628.90	1484.78
629.00	1431.53
629.09	1361.90
629.19	1521.64
629.29	1431.53
629.39	1495.02
629.48	1406.95
629.58	1458.15
629.68	1443.82
629.77	1486.83
629.87	1503.21
629.97	1478.63
630.06	1386.47
630.16	1429.48
630.26	1413.10
630.35	1406.95
630.45	1394.67
630.55	1372.14
630.64	1406.95
630.74	1421.29
630.83	1519.59
630.93	1593.32
631.03	3045.33
631.12	6879.13
631.22	5629.87
631.32	2496.47
631.41	1722.34
631.51	1497.07
631.61	1474.54
631.70	1406.95
631.80	1484.78
631.90	1513.45
631.99	1544.17
632.09	1421.29
632.19	1433.58
632.28	1425.39
632.38	1456.11
632.48	1443.82
632.57	1472.49
632.67	1376.24
632.76	1376.24
632.86	1425.39
632.96	1382.38
633.05	1402.86
633.15	1357.80
633.25	1374.19
633.34	1415.15
633.44	1495.02
633.54	1560.55
633.63	1452.01
633.73	1566.70
633.82	1632.23
633.92	2234.33
634.02	7147.41
634.11	14018.35
634.21	10006.38
634.31	3616.71
634.40	2291.68
634.50	1810.40
634.59	1570.79
634.69	1515.50
634.79	1437.67
634.88	1472.49
634.98	1384.43
635.08	1437.67
635.17	1406.95
635.27	1415.15
635.36	1392.62
635.46	1396.71
635.56	1480.68
635.65	1413.10
635.75	1443.82
635.84	1460.20
635.94	1439.72
636.04	1396.71
636.13	1406.95
636.23	1376.24
636.32	1468.39
636.42	1431.53
636.52	1492.97
636.61	1466.35
636.71	1316.84
636.80	1372.14
636.90	1488.87
637.00	1535.98
637.09	1347.56
637.19	1462.25
637.28	1372.14
637.38	1406.95
637.48	1431.53
637.57	1421.29
637.67	1419.24
637.76	1404.91
637.86	1462.25
637.96	1433.58
638.05	1425.39
638.15	1529.83
638.24	1452.01
638.34	1366.00
638.44	1429.48
638.53	1443.82
638.63	1525.74
638.72	1796.07
638.82	4022.21
638.91	11853.64
639.01	13096.76
639.11	4560.83
639.20	2543.58
639.30	1882.08
639.39	1624.04
639.49	1454.06
639.58	1384.43
639.68	1505.26
639.78	1458.15
639.87	1402.86
639.97	1478.63
640.06	1486.83
640.16	1482.73
640.25	1533.93
640.35	1484.78
640.45	1490.92
640.54	1636.33
640.64	2109.41
640.73	6762.39
640.83	24028.82
640.92	31532.57
641.02	10915.67
641.12	4726.71
641.21	2971.60
641.31	2060.26
641.40	1693.67
641.50	1581.03
641.59	1490.92
641.69	1529.83
641.78	1380.33
641.88	1361.90
641.97	1466.35
642.07	1544.17
642.17	1476.59
642.26	1472.49
642.36	1347.56
642.45	1497.07
642.55	1449.96
642.64	1486.83
642.74	1370.09
642.83	1482.73
642.93	1462.25
643.02	1507.30
643.12	1490.92
643.22	1445.87
643.31	1445.87
643.41	1411.05
643.50	1466.35
643.60	1476.59
643.69	1382.38
643.79	1415.15
643.88	1472.49
643.98	1443.82
644.07	1454.06
644.17	1435.63
644.26	1441.77
644.36	1501.16
644.45	1492.97
644.55	1343.47
644.64	1349.61
644.74	1464.30
644.84	1394.67
644.93	1361.90
645.03	1398.76
645.12	1378.28
645.22	1419.24
645.31	1366.00
645.41	1478.63
645.50	1478.63
645.60	1366.00
645.69	1415.15
645.79	1413.10
645.88	1435.63
645.98	1392.62
646.07	1366.00
646.17	1490.92
646.26	1497.07
646.36	1333.23
646.45	1484.78
646.55	1445.87
646.64	1443.82
646.74	1486.83
646.83	1423.34
646.93	1587.18
647.02	1482.73
647.12	1445.87
647.21	1390.57
647.31	1392.62
647.40	1423.34
647.50	1447.91
647.59	1439.72
647.69	1394.67
647.78	1468.39
647.88	1427.43
647.97	1468.39
648.07	1331.18
648.16	1411.05
648.26	1390.57
648.35	1462.25
648.45	1423.34
648.54	1394.67
648.64	1429.48
648.73	1513.45
648.83	1349.61
648.92	1333.23
649.01	1388.52
649.11	1347.56
649.20	1470.44
649.30	1292.27
649.39	1499.11
649.49	1388.52
649.58	1478.63
649.68	1361.90
649.77	1488.87
649.87	1357.80
649.96	1486.83
650.06	1392.62
650.15	1300.46
650.25	1335.28
650.34	1359.85
650.44	1411.05
650.53	1480.68
650.62	1435.63
650.72	1525.74
650.81	1550.31
650.91	1511.40
651.00	1767.40
651.10	3772.36
651.19	13678.38
651.29	19175.13
651.38	9566.06
651.48	3809.22
651.57	2559.96
651.66	2072.54
651.76	1609.70
651.85	1595.37
651.95	1470.44
652.04	1503.21
652.14	1513.45
652.23	1476.59
652.33	1443.82
652.42	1406.95
652.52	1468.39
652.61	1366.00
652.70	1423.34
652.80	1515.50
652.89	1525.74
652.99	1441.77
653.08	1411.05
653.18	1490.92
653.27	1490.92
653.36	1462.25
653.46	1525.74
653.55	1452.01
653.65	1458.15
653.74	2562.01
653.84	8351.62
653.93	13266.74
654.02	5504.94
654.12	2467.80
654.21	2021.35
654.31	1806.31
654.40	1505.26
654.50	1409.00
654.59	1380.33
654.68	1427.43
654.78	1398.76
654.87	1419.24
654.97	1384.43
655.06	1423.34
655.16	1474.54
655.25	1447.91
655.34	1378.28
655.44	1394.67
655.53	1398.76
655.63	1388.52
655.72	1374.19
655.81	1380.33
655.91	1279.98
656.00	1341.42
656.10	1398.76
656.19	1402.86
656.28	1454.06
656.38	1503.21
656.47	1361.90
656.57	1464.30
656.66	1495.02
656.75	1533.93
656.85	1501.16
656.94	1439.72
657.04	1366.00
657.13	1394.67
657.22	1462.25
657.32	1533.93
657.41	1368.04
657.51	1345.52
657.60	1441.77
657.69	1435.63
657.79	1415.15
657.88	1337.32
657.98	1388.52
658.07	1447.91
658.16	1398.76
658.26	1431.53
658.35	1476.59
658.44	1398.76
658.54	1411.05
658.63	1470.44
658.73	1406.95
658.82	1441.77
658.91	1419.24
659.01	1497.07
659.10	1363.95
659.19	1382.38
659.29	1431.53
659.38	1398.76
659.48	1349.61
659.57	1480.68
659.66	1443.82
659.76	1519.59
659.85	1425.39
659.94	1525.74
660.04	1468.39
660.13	1411.05
660.23	1509.35
660.32	2279.39
660.41	6393.76
660.51	8836.99
660.60	4822.97
660.69	2607.06
660.79	1972.19
660.88	1642.47
660.97	1466.35
661.07	1505.26
661.16	1388.52
661.25	1441.77
661.35	1413.10
661.44	1449.96
661.54	1468.39
661.63	1419.24
661.72	1452.01
661.82	1386.47
661.91	1400.81
662.00	1445.87
662.10	1415.15
662.19	1290.22
662.28	1476.59
662.38	1443.82
662.47	1456.11
662.56	1345.52
662.66	1425.39
662.75	1361.90
662.84	1445.87
662.94	1423.34
663.03	1484.78
663.12	1366.00
663.22	1388.52
663.31	1433.58
663.40	1337.32
663.50	1478.63
663.59	1425.39
663.68	1423.34
663.78	1454.06
663.87	1462.25
663.96	1445.87
664.06	1400.81
664.15	1484.78
664.24	1394.67
664.34	1388.52
664.43	1406.95
664.52	1394.67
664.62	1574.89
664.71	1394.67
664.80	1411.05
664.89	1345.52
664.99	1435.63
665.08	1435.63
665.17	1427.43
665.27	1429.48
665.36	1452.01
665.45	1492.97
665.55	1345.52
665.64	1529.83
665.73	1361.90
665.83	1333.23
665.92	1366.00
666.01	1421.29
666.10	1452.01
666.20	1388.52
666.29	1421.29
666.38	1402.86
666.48	1452.01
666.57	1419.24
666.66	1427.43
666.76	1415.15
666.85	1423.34
666.94	1372.14
667.03	1353.71
667.13	1439.72
667.22	1402.86
667.31	1497.07
667.41	1421.29
667.50	1411.05
667.59	1478.63
667.68	1402.86
667.78	1452.01
667.87	1472.49
667.96	1478.63
668.06	1447.91
668.15	1718.25
668.24	3456.97
668.33	10200.93
668.43	15648.53
668.52	8689.53
668.61	3348.43
668.71	2510.81
668.80	1990.63
668.89	1650.66
668.98	1456.11
669.08	1466.35
669.17	1492.97
669.26	1501.16
669.35	1433.58
669.45	1443.82
669.54	1421.29
669.63	1488.87
669.72	1421.29
669.82	1329.13
669.91	1361.90
670.00	1476.59
670.10	1312.75
670.19	1378.28
670.28	1554.41
670.37	1445.87
670.47	1419.24
670.56	1509.35
670.65	1476.59
670.74	1384.43
670.84	1497.07
670.93	1439.72
671.02	1382.38
671.11	1460.20
671.21	1390.57
671.30	1507.30
671.39	1525.74
671.48	1454.06
671.58	1298.41
671.67	1501.16
671.76	1490.92
671.85	1456.11
671.95	1497.07
672.04	1822.69
672.13	4470.72
672.22	11986.76
672.31	10555.23
672.41	3975.11
672.50	2480.09
672.59	1970.15
672.68	1705.96
672.78	1503.21
672.87	1439.72
672.96	1492.97
673.05	1404.91
673.15	1415.15
673.24	1380.33
673.33	1472.49
673.42	1433.58
673.51	1509.35
673.61	1398.76
673.70	1458.15
673.79	1433.58
673.88	1443.82
673.98	1515.50
674.07	1443.82
674.16	1355.76
674.25	1447.91
674.34	1435.63
674.44	1435.63
674.53	1404.91
674.62	1413.10
674.71	1384.43
674.80	1443.82
674.90	1470.44
674.99	1314.80
675.08	1363.95
675.17	1421.29
675.27	1411.05
675.36	1427.43
675.45	1398.76
675.54	1425.39
675.63	1402.86
675.73	1372.14
675.82	1304.56
675.91	1486.83
676.00	1382.38
676.09	1433.58
676.19	1495.02
676.28	1433.58
676.37	1409.00
676.46	1345.52
676.55	1449.96
676.64	1460.20
676.74	1370.09
676.83	1452.01
676.92	1398.76
677.01	1558.50
677.10	1462.25
677.20	1578.98
677.29	1454.06
677.38	1349.61
677.47	1454.06
677.56	1374.19
677.65	1472.49
677.75	1331.18
677.84	1431.53
677.93	1443.82
678.02	1404.91
678.11	1341.42
678.21	1476.59
678.30	1394.67
678.39	1480.68
678.48	1429.48
678.57	1341.42
678.66	1404.91
678.76	1423.34
678.85	1402.86
678.94	1484.78
679.03	1525.74
679.12	1501.16
679.21	1433.58
679.31	1386.47
679.40	1447.91
679.49	1435.63
679.58	1322.99
679.67	1429.48
679.76	1507.30
679.85	1484.78
679.95	1462.25
680.04	1382.38
680.13	1447.91
680.22	1423.34
680.31	1413.10
680.40	1433.58
680.50	1460.20
680.59	1335.28
680.68	1357.80
680.77	1312.75
680.86	1296.36
680.95	1351.66
681.04	1376.24
681.14	1380.33
681.23	1411.05
681.32	1447.91
681.41	1425.39
681.50	1351.66
681.59	1468.39
681.68	1337.32
681.78	1386.47
681.87	1415.15
681.96	1439.72
682.05	1429.48
682.14	1433.58
682.23	1452.01
682.32	1370.09
682.41	1462.25
682.51	1341.42
682.60	1378.28
682.69	1366.00
682.78	1357.80
682.87	1429.48
682.96	1421.29
683.05	1421.29
683.14	1341.42
683.24	1386.47
683.33	1374.19
683.42	1443.82
683.51	1374.19
683.60	1544.17
683.69	1427.43
683.78	1439.72
683.87	1417.19
683.96	1329.13
684.06	1427.43
684.15	1527.78
684.24	1398.76
684.33	1421.29
684.42	1409.00
684.51	1460.20
684.60	1472.49
684.69	1437.67
684.78	1382.38
684.87	1376.24
684.97	1435.63
685.06	1347.56
685.15	1353.71
685.24	1347.56
685.33	1320.94
685.42	1427.43
685.51	1370.09
685.60	1390.57
685.69	1400.81
685.78	1374.19
685.88	1402.86
685.97	1363.95
686.06	1437.67
686.15	1288.17
686.24	1361.90
686.33	1390.57
686.42	1339.37
686.51	1439.72
686.60	1482.73
686.69	1415.15
686.78	1390.57
686.87	1433.58
686.97	1386.47
687.06	1470.44
687.15	1392.62
687.24	1427.43
687.33	1329.13
687.42	1370.09
687.51	1472.49
687.60	1411.05
687.69	1413.10
687.78	1372.14
687.87	1398.76
687.96	1341.42
688.05	1388.52
688.14	1329.13
688.24	1484.78
688.33	1347.56
688.42	1312.75
688.51	1380.33
688.60	1345.52
688.69	1415.15
688.78	1331.18
688.87	1413.10
688.96	1376.24
689.05	1333.23
689.14	1466.35
689.23	1361.90
689.32	1449.96
689.41	1501.16
689.50	1497.07
689.59	1433.58
689.68	1431.53
689.77	1388.52
689.86	1419.24
689.96	1347.56
690.05	1417.19
690.14	1478.63
690.23	1398.76
690.32	1363.95
690.41	1378.28
690.50	1488.87
690.59	1419.24
690.68	1372.14
690.77	1341.42
690.86	1402.86
690.95	1458.15
691.04	1505.26
691.13	1484.78
691.22	1419.24
691.31	1435.63
691.40	1333.23
691.49	1427.43
691.58	1501.16
691.67	1439.72
691.76	1359.85
691.85	1495.02
691.94	1390.57
692.03	1421.29
692.12	1392.62
692.21	1347.56
692.30	1345.52
692.39	1460.20
692.48	1380.33
692.57	1421.29
692.66	1464.30
692.75	1392.62
692.84	1454.06
692.93	1382.38
693.02	1472.49
693.11	1632.23
693.20	1961.95
693.29	5181.36
693.38	13045.56
693.47	14176.04
693.56	9869.16
693.65	4102.08
693.74	2985.94
693.83	2291.68
693.92	1798.12
694.01	1595.37
694.10	1576.94
694.19	1503.21
694.28	1433.58
694.37	1458.15
694.46	1525.74
694.55	1439.72
694.64	1492.97
694.73	1419.24
694.82	1402.86
694.91	1433.58
695.00	1466.35
695.09	1484.78
695.18	1382.38
695.27	1386.47
695.36	1398.76
695.45	1361.90
695.54	1390.57
695.63	1468.39
695.72	1421.29
695.81	1388.52
695.90	1468.39
695.99	1282.03
696.08	1452.01
696.17	1486.83
696.26	1415.15
696.35	1421.29
696.44	1529.83
696.53	1390.57
696.62	1456.11
696.71	1363.95
696.80	1374.19
696.89	1409.00
696.98	1388.52
697.07	1306.60
697.16	1388.52
697.25	1404.91
697.34	1361.90
697.43	1447.91
697.52	1435.63
697.61	1378.28
697.70	1443.82
697.78	1429.48
697.87	1484.78
697.96	1441.77
698.05	1325.04
698.14	1308.65
698.23	1331.18
698.32	1421.29
698.41	1456.11
698.50	1468.39
698.59	1525.74
698.68	1425.39
698.77	1409.00
698.86	1331.18
698.95	1415.15
699.04	1519.59
699.13	1425.39
699.22	1425.39
699.31	1472.49
699.40	1503.21
699.48	1392.62
699.57	1411.05
699.66	1398.76
699.75	1480.68
699.84	1372.14
699.93	1406.95
700.02	1474.54
700.11	1433.58
700.20	1413.10
700.29	1363.95
700.38	1425.39
700.47	1394.67
700.56	1302.51
700.65	1464.30
700.73	1427.43
700.82	1398.76
700.91	1476.59
701.00	1443.82
701.09	1380.33
701.18	1449.96
701.27	1525.74
701.36	1441.77
701.45	1445.87
701.54	1454.06
701.63	1515.50
701.72	1443.82
701.80	1458.15
701.89	1382.38
701.98	1388.52
702.07	1380.33
702.16	1474.54
702.25	1425.39
702.34	1439.72
702.43	1486.83
702.52	1396.71
702.61	1482.73
702.70	1613.80
702.78	2377.69
702.87	2977.75
702.96	2463.71
703.05	1730.53
703.14	1720.29
703.23	1535.98
703.32	1505.26
703.41	1517.54
703.50	2523.10
703.58	8851.32
703.67	23824.02
703.76	22732.45
703.85	9881.45
703.94	5042.10
704.03	3071.95
704.12	2271.20
704.21	1812.45
704.30	1705.96
704.38	1568.74
704.47	1560.55
704.56	1478.63
704.65	1513.45
704.74	1527.78
704.83	1421.29
704.92	1486.83
705.01	1355.76
705.09	1363.95
705.18	1480.68
705.27	1411.05
705.36	1353.71
705.45	1396.71
705.54	1456.11
705.63	1421.29
705.72	1437.67
705.80	1470.44
705.89	1476.59
705.98	1370.09
706.07	1476.59
706.16	1460.20
706.25	1492.97
706.34	1705.96
706.42	1636.33
706.51	1531.88
706.60	1497.07
706.69	1423.34
706.78	1468.39
706.87	1366.00
706.96	1476.59
707.04	1482.73
707.13	1423.34
707.22	1337.32
707.31	1458.15
707.40	1372.14
707.49	1433.58
707.57	1406.95
707.66	1415.15
707.75	1351.66
707.84	1439.72
707.93	1316.84
708.02	1511.40
708.10	1474.54
708.19	1355.76
708.28	1341.42
708.37	1474.54
708.46	1419.24
708.55	1415.15
708.63	1517.54
708.72	1390.57
708.81	1386.47
708.90	1363.95
708.99	1404.91
709.08	1382.38
709.16	1427.43
709.25	1488.87
709.34	1454.06
709.43	1390.57
709.52	1449.96
709.61	1513.45
709.69	1503.21
709.78	1388.52
709.87	1560.55
709.96	1445.87
710.05	1474.54
710.13	1443.82
710.22	1431.53
710.31	1439.72
710.40	1505.26
710.49	1501.16
710.58	1388.52
710.66	1372.14
710.75	1322.99
710.84	1374.19
710.93	1394.67
711.02	1345.52
711.10	1476.59
711.19	1359.85
711.28	1363.95
711.37	1306.60
711.46	1423.34
711.54	1452.01
711.63	1368.04
711.72	1394.67
711.81	1361.90
711.90	1511.40
711.98	1376.24
712.07	1310.70
712.16	1349.61
712.25	1363.95
712.33	1392.62
712.42	1388.52
712.51	1406.95
712.60	1501.16
712.69	1380.33
712.77	1431.53
712.86	1347.56
712.95	1445.87
713.04	1433.58
713.13	1370.09
713.21	1361.90
713.30	1509.35
713.39	1476.59
713.48	1339.37
713.56	1308.65
713.65	1357.80
713.74	1335.28
713.83	1419.24
713.91	1390.57
714.00	1429.48
714.09	1423.34
714.18	1470.44
714.27	1538.02
714.35	1427.43
714.44	1372.14
714.53	1411.05
714.62	1406.95
714.70	1406.95
714.79	1419.24
714.88	1433.58
714.97	1454.06
715.05	1396.71
715.14	1366.00
715.23	1376.24
715.32	1390.57
715.40	1368.04
715.49	1368.04
715.58	1337.32
715.67	1468.39
715.75	1449.96
715.84	1474.54
715.93	1394.67
716.02	1454.06
716.10	1533.93
716.19	1421.29
716.28	1429.48
716.37	1415.15
716.45	1372.14
716.54	1370.09
716.63	1486.83
716.72	1345.52
716.80	1452.01
716.89	1331.18
716.98	1550.31
717.07	1398.76
717.15	1519.59
717.24	1443.82
717.33	1429.48
717.41	1404.91
717.50	1355.76
717.59	1621.99
717.68	2435.03
717.76	5087.15
717.85	6291.36
717.94	3919.81
718.02	2306.01
718.11	1882.08
718.20	1720.29
718.29	1499.11
718.37	1480.68
718.46	1382.38
718.55	1462.25
718.64	1437.67
718.72	1396.71
718.81	1388.52
718.90	1384.43
718.98	1447.91
719.07	1554.41
719.16	1458.15
719.24	1501.16
719.33	1452.01
719.42	1435.63
719.51	1445.87
719.59	1511.40
719.68	1378.28
719.77	1382.38
719.85	1382.38
719.94	1355.76
720.03	1353.71
720.11	1404.91
720.20	1425.39
720.29	1382.38
720.38	1314.80
720.46	1445.87
720.55	1396.71
720.64	1560.55
720.72	1382.38
720.81	1339.37
720.90	1347.56
720.98	1492.97
721.07	1337.32
721.16	1589.22
721.24	1488.87
721.33	1368.04
721.42	1470.44
721.50	1366.00
721.59	1435.63
721.68	1454.06
721.77	1486.83
721.85	1435.63
721.94	1376.24
722.03	1431.53
722.11	1396.71
722.20	1441.77
722.29	1482.73
722.37	1404.91
722.46	1357.80
722.55	1484.78
722.63	1406.95
722.72	1380.33
722.81	1378.28
722.89	1331.18
722.98	1425.39
723.07	1445.87
723.15	1445.87
723.24	1445.87
723.32	1394.67
723.41	1503.21
723.50	1423.34
723.58	1507.30
723.67	1366.00
723.76	1476.59
723.84	1454.06
723.93	1480.68
724.02	1488.87
724.10	1429.48
724.19	1425.39
724.28	1468.39
724.36	1501.16
724.45	1525.74
724.54	1486.83
724.62	1617.90
724.71	2346.97
724.80	6293.41
724.88	13672.24
724.97	12793.66
725.05	5826.47
725.14	3796.93
725.23	2484.19
725.31	2039.78
725.40	1748.97
725.49	1619.94
725.57	1576.94
725.66	1525.74
725.74	1372.14
725.83	1368.04
725.92	1437.67
726.00	1406.95
726.09	1339.37
726.18	1468.39
726.26	1435.63
726.35	1355.76
726.43	1368.04
726.52	1376.24
726.61	1460.20
726.69	1300.46
726.78	1398.76
726.87	1345.52
726.95	1366.00
727.04	1423.34
727.12	1396.71
727.21	1376.24
727.30	1384.43
727.38	1386.47
727.47	1402.86
727.55	1456.11
727.64	1417.19
727.73	1355.76
727.81	1419.24
727.90	1415.15
727.98	1282.03
728.07	1488.87
728.16	1404.91
728.24	1431.53
728.33	1380.33
728.41	1460.20
728.50	1376.24
728.59	1462.25
728.67	1435.63
728.76	1497.07
728.84	1497.07
728.93	1460.20
729.02	1398.76
729.10	1386.47
729.19	1372.14
729.27	1478.63
729.36	1382.38
729.44	1413.10
729.53	1433.58
729.62	1413.10
729.70	1445.87
729.79	1361.90
729.87	1474.54
729.96	1507.30
730.05	1415.15
730.13	1447.91
730.22	1363.95
730.30	1486.83
730.39	1515.50
730.47	1370.09
730.56	1429.48
730.65	1351.66
730.73	1392.62
730.82	1374.19
730.90	1419.24
730.99	1437.67
731.07	1411.05
731.16	1437.67
731.24	1386.47
731.33	1456.11
731.42	1316.84
731.50	1423.34
731.59	1353.71
731.67	1478.63
731.76	1335.28
731.84	1355.76
731.93	1505.26
732.01	1462.25
732.10	1404.91
732.19	1378.28
732.27	1415.15
732.36	1400.81
732.44	1396.71
732.53	1341.42
732.61	1431.53
732.70	1409.00
732.78	1413.10
732.87	1421.29
732.95	1449.96
733.04	1474.54
733.13	1423.34
733.21	1449.96
733.30	1409.00
733.38	1363.95
733.47	1378.28
733.55	1452.01
733.64	1456.11
733.72	1411.05
733.81	1441.77
733.89	1337.32
733.98	1347.56
734.06	1435.63
734.15	1427.43
734.23	1452.01
734.32	1544.17
734.40	1441.77
734.49	1347.56
734.57	1443.82
734.66	1409.00
734.75	1406.95
734.83	1476.59
734.92	1347.56
735.00	1462.25
735.09	1527.78
735.17	1359.85
735.26	1423.34
735.34	1396.71
735.43	1417.19
735.51	1335.28
735.60	1341.42
735.68	1296.36
735.77	1417.19
735.85	1437.67
735.94	1353.71
736.02	1464.30
736.11	1361.90
736.19	1331.18
736.28	1394.67
736.36	1427.43
736.45	1343.47
736.53	1388.52
736.62	1374.19
736.70	1449.96
736.79	1542.12
736.87	1390.57
736.96	1406.95
737.04	1347.56
737.13	1411.05
737.21	1363.95
737.30	1378.28
737.38	1474.54
737.47	1400.81
737.55	1435.63
737.63	1435.63
737.72	1490.92
737.80	1419.24
737.89	1445.87
737.97	1427.43
738.06	1404.91
738.14	1394.67
738.23	1390.57
738.31	1349.61
738.40	1439.72
738.48	1273.84
738.57	1386.47
738.65	1423.34
738.74	1435.63
738.82	1443.82
738.91	1445.87
738.99	1341.42
739.07	1533.93
739.16	1353.71
739.24	1437.67
739.33	1445.87
739.41	1452.01
739.50	1521.64
739.58	1382.38
739.67	1464.30
739.75	1400.81
739.84	1417.19
739.92	1376.24
740.01	1404.91
740.09	1492.97
740.17	1400.81
740.26	1304.56
740.34	1443.82
740.43	1458.15
740.51	1490.92
740.60	1527.78
740.68	1394.67
740.77	1343.47
740.85	1439.72
740.93	1386.47
741.02	1372.14
741.10	1439.72
741.19	1380.33
741.27	1488.87
741.36	1355.76
741.44	1302.51
741.52	1411.05
741.61	1425.39
741.69	1486.83
741.78	1384.43
741.86	1476.59
741.95	1540.07
742.03	1427.43
742.11	1468.39
742.20	1370.09
742.28	1370.09
742.37	1443.82
742.45	1372.14
742.54	1396.71
742.62	1474.54
742.70	1501.16
742.79	1427.43
742.87	1400.81
742.96	1345.52
743.04	1474.54
743.12	1380.33
743.21	1501.16
743.29	1331.18
743.38	1370.09
743.46	1415.15
743.54	1345.52
743.63	1382.38
743.71	1472.49
743.80	1607.66
743.88	1462.25
743.97	1605.61
744.05	2349.02
744.13	4339.65
744.22	5367.73
744.30	4018.11
744.38	2580.44
744.47	2197.47
744.55	1722.34
744.64	1564.65
744.72	1583.08
744.80	1495.02
744.89	1384.43
744.97	1445.87
745.06	1517.54
745.14	1427.43
745.22	1443.82
745.31	1353.71
745.39	1474.54
745.48	1458.15
745.56	1535.98
745.64	1427.43
745.73	1355.76
745.81	1372.14
745.89	1423.34
745.98	1472.49
746.06	1445.87
746.15	1425.39
746.23	1411.05
746.31	1349.61
746.40	1374.19
746.48	1411.05
746.56	1427.43
746.65	1402.86
746.73	1333.23
746.81	1470.44
746.90	1415.15
746.98	1376.24
747.07	1503.21
747.15	1421.29
747.23	1419.24
747.32	1343.47
747.40	1427.43
747.48	1472.49
747.57	1505.26
747.65	1499.11
747.73	1439.72
747.82	1478.63
747.90	1353.71
747.98	1441.77
748.07	1443.82
748.15	1378.28
748.24	1372.14
748.32	1468.39
748.40	1384.43
748.49	1409.00
748.57	1447.91
748.65	1411.05
748.74	1464.30
748.82	1406.95
748.90	1404.91
748.99	1470.44
749.07	1578.98
749.15	1822.69
749.24	1980.39
749.32	1847.27
749.40	1472.49
749.49	1611.75
749.57	1492.97
749.65	1527.78
749.74	1355.76
749.82	1378.28
749.90	1464.30
749.99	1454.06
750.07	1458.15
750.15	1431.53
750.23	1269.74
750.32	1452.01
750.40	1513.45
750.48	1433.58
750.57	1349.61
750.65	1406.95
750.73	1492.97
750.82	1380.33
750.90	1396.71
750.98	1392.62
751.07	1349.61
751.15	1404.91
751.23	1384.43
751.32	1470.44
751.40	1488.87
751.48	1376.24
751.56	1431.53
751.65	1390.57
751.73	1355.76
751.81	1409.00
751.90	1359.85
751.98	1290.22
752.06	1452.01
752.15	1501.16
752.23	1419.24
752.31	1359.85
752.39	1423.34
752.48	1413.10
752.56	1327.08
752.64	1400.81
752.73	1288.17
752.81	1411.05
752.89	1361.90
752.97	1329.13
753.06	1366.00
753.14	1466.35
753.22	1433.58
753.31	1519.59
753.39	1447.91
753.47	1376.24
753.55	1411.05
753.64	1495.02
753.72	1769.44
753.80	2007.01
753.89	2271.20
753.97	2093.02
754.05	1718.25
754.13	1705.96
754.22	1480.68
754.30	1492.97
754.38	1423.34
754.46	1519.59
754.55	1564.65
754.63	1566.70
754.71	1689.57
754.79	1560.55
754.88	1497.07
754.96	1374.19
755.04	1388.52
755.12	1400.81
755.21	1402.86
755.29	1325.04
755.37	1372.14
755.45	1443.82
755.54	1427.43
755.62	1460.20
755.70	1409.00
755.78	1378.28
755.87	1335.28
755.95	1474.54
756.03	1355.76
756.11	1443.82
756.20	1374.19
756.28	1390.57
756.36	1447.91
756.44	1415.15
756.53	1316.84
756.61	1396.71
756.69	1370.09
756.77	1347.56
756.86	1359.85
756.94	1376.24
757.02	1492.97
757.10	1447.91
757.19	1454.06
757.27	1425.39
757.35	1443.82
757.43	1370.09
757.51	1421.29
757.60	1339.37
757.68	1456.11
757.76	1449.96
757.84	1429.48
757.93	1402.86
758.01	1478.63
758.09	1337.32
758.17	1443.82
758.25	1505.26
758.34	1417.19
758.42	1443.82
758.50	1439.72
758.58	1415.15
758.66	1404.91
758.75	1488.87
758.83	1431.53
758.91	1411.05
758.99	1341.42
759.07	1333.23
759.16	1382.38
759.24	1363.95
759.32	1339.37
759.40	1316.84
759.48	1413.10
759.57	1312.75
759.65	1390.57
759.73	1300.46
759.81	1499.11
759.89	1415.15
759.98	1370.09
760.06	1433.58
760.14	1486.83
760.22	1398.76
760.30	1415.15
760.39	1429.48
760.47	1517.54
760.55	1398.76
760.63	1497.07
760.71	1355.76
760.79	1452.01
760.88	1380.33
760.96	1454.06
761.04	1404.91
761.12	1488.87
761.20	1388.52
761.29	1421.29
761.37	1409.00
761.45	1404.91
761.53	1445.87
761.61	1435.63
761.69	1363.95
761.78	1466.35
761.86	1382.38
761.94	1376.24
762.02	1361.90
762.10	1482.73
762.18	1372.14
762.27	1374.19
762.35	1378.28
762.43	1452.01
762.51	1343.47
762.59	1394.67
762.67	1417.19
762.76	1458.15
762.84	1413.10
762.92	1357.80
763.00	1343.47
763.08	1427.43
763.16	1443.82
763.24	1423.34
763.33	1351.66
763.41	1406.95
763.49	1400.81
763.57	1392.62
763.65	1388.52
763.73	1343.47
763.81	1411.05
763.90	1456.11
763.98	1322.99
764.06	1370.09
764.14	1476.59
764.22	1488.87
764.30	1421.29
764.38	1449.96
764.46	1390.57
764.55	1378.28
764.63	1394.67
764.71	1460.20
764.79	1329.13
764.87	1437.67
764.95	1331.18
765.03	1370.09
765.12	1454.06
765.20	1474.54
765.28	1470.44
765.36	1417.19
765.44	1460.20
765.52	1425.39
765.60	1427.43
765.68	1300.46
765.76	1361.90
765.85	1411.05
765.93	1452.01
766.01	1435.63
766.09	1382.38
766.17	1329.13
766.25	1415.15
766.33	1435.63
766.41	1435.63
766.49	1335.28
766.58	1392.62
766.66	1501.16
766.74	1378.28
766.82	1398.76
766.90	1269.74
766.98	1482.73
767.06	1443.82
767.14	1417.19
767.22	1431.53
767.30	1411.05
767.38	1314.80
767.47	1351.66
767.55	1427.43
767.63	1441.77
767.71	1497.07
767.79	1421.29
767.87	1449.96
767.95	1419.24
768.03	1413.10
768.11	1404.91
768.19	1409.00
768.27	1400.81
768.36	1406.95
768.44	1394.67
768.52	1366.00
768.60	1492.97
768.68	1366.00
768.76	1390.57
768.84	1454.06
768.92	1415.15
769.00	1386.47
769.08	1421.29
769.16	1431.53
769.24	1433.58
769.32	1429.48
769.40	1402.86
769.48	1372.14
769.57	1382.38
769.65	1402.86
769.73	1449.96
769.81	1488.87
769.89	1538.02
769.97	1456.11
770.05	1394.67
770.13	1341.42
770.21	1421.29
770.29	1388.52
770.37	1366.00
770.45	1384.43
770.53	1411.05
770.61	1501.16
770.69	1452.01
770.77	1427.43
770.85	1533.93
770.93	1372.14
771.01	1417.19
771.10	1439.72
771.18	1390.57
771.26	1378.28
771.34	1335.28
771.42	1359.85
771.50	1345.52
771.58	1452.01
771.66	1447.91
771.74	1333.23
771.82	1343.47
771.90	1402.86
771.98	1431.53
772.06	1320.94
772.14	1452.01
772.22	1423.34
772.30	1380.33
772.38	1382.38
772.46	1564.65
772.54	1398.76
772.62	1376.24
772.70	1411.05
772.78	1298.41
772.86	1421.29
772.94	1292.27
773.02	1411.05
773.10	1376.24
773.18	1429.48
773.26	1400.81
773.34	1486.83
773.42	1472.49
773.50	1456.11
773.58	1339.37
773.66	1492.97
773.74	1390.57
773.82	1540.07
773.90	1406.95
773.98	1351.66
774.06	1394.67
774.14	1421.29
774.22	1503.21
774.30	1404.91
774.38	1390.57
774.46	1437.67
774.54	1404.91
774.62	1431.53
774.70	1380.33
774.78	1427.43
774.86	1349.61
774.94	1312.75
775.02	1454.06
775.10	1372.14
775.18	1402.86
775.26	1529.83
775.34	1380.33
775.42	1386.47
775.50	1374.19
775.58	1443.82
775.66	1478.63
775.74	1351.66
775.82	1464.30
775.90	1366.00
775.98	1406.95
776.06	1433.58
776.14	1406.95
776.22	1370.09
776.30	1341.42
776.38	1357.80
776.46	1566.70
776.54	1470.44
776.62	1355.76
776.70	1382.38
776.78	1413.10
776.86	1447.91
776.94	1394.67
777.01	1390.57
777.09	1394.67
777.17	1382.38
777.25	1386.47
777.33	1374.19
777.41	1378.28
777.49	1404.91
777.57	1392.62
777.65	1460.20
777.73	1478.63
777.81	1349.61
777.89	1390.57
777.97	1376.24
778.05	1427.43
778.13	1413.10
778.21	1411.05
778.29	1406.95
778.37	1353.71
778.45	1433.58
778.52	1388.52
778.60	1378.28
778.68	1400.81
778.76	1353.71
778.84	1435.63
778.92	1337.32
779.00	1363.95
779.08	1398.76
779.16	1382.38
779.24	1351.66
779.32	1505.26
779.40	1398.76
779.48	1374.19
779.56	1378.28
779.63	1316.84
779.71	1423.34
779.79	1294.32
779.87	1460.20
779.95	1374.19
780.03	1353.71
780.11	1392.62
780.19	1460.20
780.27	1402.86
780.35	1374.19
780.43	1394.67
780.51	1355.76
780.58	1353.71
780.66	1417.19
780.74	1372.14
780.82	1372.14
780.90	1413.10
780.98	1445.87
781.06	1454.06
781.14	1374.19
781.22	1304.56
781.30	1443.82
781.37	1470.44
781.45	1329.13
781.53	1361.90
781.61	1468.39
781.69	1370.09
781.77	1376.24
781.85	1513.45
781.93	1402.86
782.01	1425.39
782.09	1353.71
782.16	1452.01
782.24	1538.02
782.32	1390.57
782.40	1411.05
782.48	1304.56
782.56	1325.04
782.64	1386.47
782.72	1396.71
782.79	1357.80
782.87	1359.85
782.95	1423.34
783.03	1404.91
783.11	1443.82
783.19	1411.05
783.27	1374.19
783.35	1456.11
783.42	1382.38
783.50	1402.86
783.58	1353.71
783.66	1392.62
783.74	1349.61
783.82	1458.15
783.90	1386.47
783.97	1392.62
784.05	1394.67
784.13	1454.06
784.21	1370.09
784.29	1368.04
784.37	1392.62
784.45	1429.48
784.52	1490.92
784.60	1386.47
784.68	1353.71
784.76	1413.10
784.84	1320.94
784.92	1382.38
785.00	1396.71
785.07	1359.85
785.15	1441.77
785.23	1370.09
785.31	1468.39
785.39	1492.97
785.47	1415.15
785.54	1290.22
785.62	1509.35
785.70	1476.59
785.78	1435.63
785.86	1355.76
785.94	1402.86
786.01	1406.95
786.09	1396.71
786.17	1419.24
786.25	1415.15
786.33	1415.15
786.41	1382.38
786.48	1435.63
786.56	1437.67
786.64	1363.95
786.72	1419.24
786.80	1454.06
786.87	1429.48
786.95	1497.07
787.03	1361.90
787.11	1464.30
787.19	1370.09
787.27	1376.24
787.34	1341.42
787.42	1447.91
787.50	1427.43
787.58	1380.33
787.66	1474.54
787.73	1345.52
787.81	1452.01
787.89	1372.14
787.97	1511.40
788.05	1435.63
788.12	1435.63
788.20	1351.66
788.28	1431.53
788.36	1435.63
788.44	1329.13
788.51	1370.09
788.59	1374.19
788.67	1427.43
788.75	1382.38
788.83	1374.19
788.90	1378.28
788.98	1341.42
789.06	1406.95
789.14	1402.86
789.22	1413.10
789.29	1353.71
789.37	1376.24
789.45	1394.67
789.53	1370.09
789.60	1343.47
789.68	1368.04
789.76	1427.43
789.84	1384.43
789.92	1355.76
789.99	1363.95
790.07	1523.69
790.15	1388.52
790.23	1388.52
790.30	1476.59
790.38	1419.24
790.46	1484.78
790.54	1359.85
790.61	1425.39
790.69	1390.57
790.77	1443.82
790.85	1380.33
790.92	1527.78
791.00	1376.24
791.08	1406.95
791.16	1490.92
791.24	1415.15
791.31	1431.53
791.39	1388.52
791.47	1329.13
791.55	1400.81
791.62	1372.14
791.70	1546.22
791.78	1523.69
791.86	1490.92
791.93	1447.91
792.01	1417.19
792.09	1452.01
792.16	1423.34
792.24	1372.14
792.32	1497.07
792.40	1427.43
792.47	1353.71
792.55	1390.57
792.63	1427.43
792.71	1429.48
792.78	1437.67
792.86	1470.44
792.94	1370.09
793.02	1402.86
793.09	1452.01
793.17	1431.53
793.25	1443.82
793.32	1361.90
793.40	1400.81
793.48	1353.71
793.56	1329.13
793.63	1384.43
793.71	1400.81
793.79	1429.48
793.86	1462.25
793.94	1443.82
794.02	1345.52
794.10	1345.52
794.17	1409.00
794.25	1419.24
794.33	1466.35
794.40	1517.54
794.48	1411.05
794.56	1404.91
794.64	1529.83
794.71	1421.29
794.79	1439.72
794.87	1409.00
794.94	1431.53
795.02	1353.71
795.10	1519.59
795.17	1507.30
795.25	1470.44
795.33	1390.57
795.41	1452.01
795.48	1462.25
795.56	1492.97
795.64	1482.73
795.71	1382.38
795.79	1411.05
795.87	1433.58
795.94	1359.85
796.02	1404.91
796.10	1421.29
796.17	1372.14
796.25	1411.05
796.33	1445.87
796.40	1400.81
796.48	1427.43
796.56	1497.07
796.64	1357.80
796.71	1417.19
796.79	1398.76
796.87	1368.04
796.94	1421.29
797.02	1335.28
797.10	1335.28
797.17	1470.44
797.25	1376.24
797.33	1447.91
797.40	1398.76
797.48	1411.05
797.56	1368.04
797.63	1404.91
797.71	1357.80
797.79	1449.96
797.86	1392.62
797.94	1411.05
798.01	1419.24
798.09	1415.15
798.17	1445.87
798.24	1458.15
798.32	1486.83
798.40	1478.63
798.47	1284.08
798.55	1322.99
798.63	1492.97
798.70	1454.06
798.78	1449.96
798.86	1443.82
798.93	1390.57
799.01	1409.00
799.09	1325.04
799.16	1501.16
799.24	1517.54
799.31	1497.07
799.39	1357.80
799.47	1484.78
799.54	1413.10
799.62	1413.10
799.70	1310.70
799.77	1439.72
799.85	1392.62
799.92	1472.49
800.00	1452.01
800.08	1445.87
800.15	1445.87
800.23	1380.33
800.31	1409.00
800.38	1497.07
800.46	1347.56
800.53	1437.67
800.61	1429.48
800.69	1374.19
800.76	1447.91
800.84	1427.43
800.92	1357.80
800.99	1361.90
801.07	1404.91
801.14	1433.58
801.22	1460.20
801.30	1390.57
801.37	1361.90
801.45	1390.57
801.52	1456.11
801.60	1351.66
801.68	1404.91
801.75	1449.96
801.83	1388.52
801.90	1415.15
801.98	1345.52
802.06	1421.29
802.13	1345.52
802.21	1468.39
802.28	1398.76
802.36	1400.81
802.43	1495.02
802.51	1366.00
802.59	1464.30
802.66	1429.48
802.74	1380.33
802.81	1411.05
802.89	1425.39
802.97	1495.02
803.04	1466.35
803.12	1359.85
803.19	1525.74
803.27	1382.38
803.34	1445.87
803.42	1378.28
803.50	1441.77
803.57	1374.19
803.65	1415.15
803.72	1439.72
803.80	1421.29
803.87	1361.90
803.95	1368.04
804.03	1359.85
804.10	1402.86
804.18	1345.52
804.25	1363.95
804.33	1441.77
804.40	1425.39
804.48	1456.11
804.55	1431.53
804.63	1462.25
804.71	1355.76
804.78	1425.39
804.86	1425.39
804.93	1413.10
805.01	1466.35
805.08	1431.53
805.16	1374.19
805.23	1363.95
805.31	1394.67
805.39	1445.87
805.46	1474.54
805.54	1394.67
805.61	1345.52
805.69	1353.71
805.76	1445.87
805.84	1372.14
805.91	1384.43
805.99	1456.11
806.06	1396.71
806.14	1388.52
806.21	1392.62
806.29	1345.52
806.36	1474.54
806.44	1382.38
806.52	1429.48
806.59	1409.00
806.67	1398.76
806.74	1509.35
806.82	1411.05
806.89	1355.76
806.97	1415.15
807.04	1431.53
807.12	1374.19
807.19	1466.35
807.27	1425.39
807.34	1370.09
807.42	1384.43
807.49	1415.15
807.57	1378.28
807.64	1372.14
807.72	1320.94
807.79	1452.01
807.87	1314.80
807.94	1406.95
808.02	1384.43
808.09	1454.06
808.17	1468.39
808.24	1449.96
808.32	1452.01
808.39	1431.53
808.47	1533.93
808.54	1415.15
808.62	1470.44
808.69	1421.29
808.77	1517.54
808.84	1398.76
808.92	1431.53
808.99	1456.11
809.07	1435.63
809.14	1431.53
809.22	1314.80
809.29	1404.91
809.37	1386.47
809.44	1384.43
809.52	1394.67
809.59	1374.19
809.67	1398.76
809.74	1392.62
809.82	1372.14
809.89	1333.23
809.96	1386.47
810.04	1413.10
810.11	1445.87
810.19	1400.81
810.26	1363.95
810.34	1386.47
810.41	1439.72
810.49	1368.04
810.56	1345.52
810.64	1331.18
810.71	1452.01
810.79	1355.76
810.86	1415.15
810.93	1449.96
811.01	1415.15
811.08	1378.28
811.16	1449.96
811.23	1392.62
811.31	1456.11
811.38	1370.09
811.46	1331.18
811.53	1415.15
811.61	1325.04
811.68	1478.63
811.75	1312.75
811.83	1462.25
811.90	1404.91
811.98	1445.87
812.05	1327.08
812.13	1409.00
812.20	1525.74
812.28	1411.05
812.35	1363.95
812.42	1447.91
812.50	1402.86
812.57	1460.20
812.65	1429.48
812.72	1429.48
812.80	1431.53
812.87	1378.28
812.94	1355.76
813.02	1290.22
813.09	1409.00
813.17	1361.90
813.24	1478.63
813.32	1454.06
813.39	1388.52
813.46	1443.82
813.54	1384.43
813.61	1345.52
813.69	1501.16
813.76	1521.64
813.83	1574.89
813.91	1566.70
813.98	1431.53
814.06	1503.21
814.13	1464.30
814.20	1449.96
814.28	1423.34
814.35	1421.29
814.43	1361.90
814.50	1392.62
814.57	1370.09
814.65	1429.48
814.72	1343.47
814.80	1368.04
814.87	1390.57
814.94	1378.28
815.02	1468.39
815.09	1509.35
815.17	1447.91
815.24	1316.84
815.31	1384.43
815.39	1298.41
815.46	1429.48
815.54	1388.52
815.61	1470.44
815.68	1386.47
815.76	1427.43
815.83	1390.57
815.90	1439.72
815.98	1402.86
816.05	1406.95
816.13	1406.95
816.20	1501.16
816.27	1359.85
816.35	1361.90
816.42	1380.33
816.49	1386.47
816.57	1484.78
816.64	1478.63
816.72	1435.63
816.79	1484.78
816.86	1370.09
816.94	1421.29
817.01	1392.62
817.08	1478.63
817.16	1431.53
817.23	1386.47
817.30	1378.28
817.38	1456.11
817.45	1437.67
817.53	1427.43
817.60	1363.95
817.67	1386.47
817.75	1390.57
817.82	1427.43
817.89	1404.91
817.97	1386.47
818.04	1460.20
818.11	1419.24
818.19	1474.54
818.26	1550.31
818.33	1447.91
818.41	1443.82
818.48	1337.32
818.55	1337.32
818.63	1349.61
818.70	1437.67
818.77	1443.82
818.85	1347.56
818.92	1384.43
818.99	1370.09
819.07	1427.43
819.14	1380.33
819.21	1452.01
819.29	1421.29
819.36	1425.39
819.43	1492.97
819.51	1480.68
819.58	1427.43
819.65	1458.15
819.73	1415.15
819.80	1402.86
819.87	1355.76
819.95	1372.14
820.02	1505.26
820.09	1386.47
820.16	1413.10
820.24	1454.06
820.31	1386.47
820.38	1425.39
820.46	1456.11
820.53	1310.70
820.60	1398.76
820.68	1464.30
820.75	1419.24
820.82	1421.29
820.90	1468.39
820.97	1411.05
821.04	1550.31
821.11	1411.05
821.19	1437.67
821.26	1456.11
821.33	1374.19
821.41	1427.43
821.48	1509.35
821.55	1495.02
821.62	1437.67
821.70	1492.97
821.77	1361.90
821.84	1503.21
821.92	1452.01
821.99	1388.52
822.06	1363.95
822.13	1314.80
822.21	1452.01
822.28	1374.19
822.35	1310.70
822.43	1443.82
822.50	1400.81
822.57	1406.95
822.64	1394.67
822.72	1361.90
822.79	1419.24
822.86	1456.11
822.93	1366.00
823.01	1409.00
823.08	1396.71
823.15	1394.67
823.22	1372.14
823.30	1343.47
823.37	1409.00
823.44	1296.36
823.51	1462.25
823.59	1308.65
823.66	1400.81
823.73	1388.52
823.81	1466.35
823.88	1452.01
823.95	1390.57
824.02	1392.62
824.10	1425.39
824.17	1382.38
824.24	1337.32
824.31	1353.71
824.38	1468.39
824.46	1402.86
824.53	1431.53
824.60	1359.85
824.67	1402.86
824.75	1339.37
824.82	1470.44
824.89	1454.06
824.96	1343.47
825.04	1357.80
825.11	1411.05
825.18	1443.82
825.25	1429.48
825.33	1325.04
825.40	1320.94
825.47	1378.28
825.54	1409.00
825.61	1398.76
825.69	1320.94
825.76	1406.95
825.83	1452.01
825.90	1480.68
825.98	1484.78
826.05	1402.86
826.12	1361.90
826.19	1394.67
826.26	1413.10
826.34	1396.71
826.41	1452.01
826.48	1402.86
826.55	1402.86
826.62	1386.47
826.70	1472.49
826.77	1411.05
826.84	1443.82
826.91	1372.14
826.98	1513.45
827.06	1466.35
827.13	1425.39
827.20	1392.62
827.27	1472.49
827.34	1480.68
827.42	1495.02
827.49	1421.29
827.56	1585.13
827.63	1447.91
827.70	1394.67
827.78	1347.56
827.85	1386.47
827.92	1415.15
827.99	1404.91
828.06	1468.39
828.13	1495.02
828.21	1402.86
828.28	1396.71
828.35	1370.09
828.42	1419.24
828.49	1441.77
828.57	1394.67
828.64	1484.78
828.71	1425.39
828.78	1394.67
828.85	1484.78
828.92	1279.98
829.00	1396.71
829.07	1359.85
829.14	1464.30
829.21	1366.00
829.28	1327.08
829.35	1329.13
829.43	1320.94
829.50	1402.86
829.57	1396.71
829.64	1361.90
829.71	1390.57
829.78	1406.95
829.85	1380.33
829.93	1357.80
830.00	1429.48
830.07	1456.11
830.14	1546.22
830.21	1574.89
830.28	1531.88
830.35	1552.36
830.43	1458.15
830.50	1478.63
830.57	1427.43
830.64	1511.40
830.71	1505.26
830.78	1439.72
830.85	1488.87
830.93	1406.95
831.00	1509.35
831.07	1384.43
831.14	1460.20
831.21	1304.56
831.28	1431.53
831.35	1427.43
831.43	1452.01
831.50	1390.57
831.57	1355.76
831.64	1402.86
831.71	1411.05
831.78	1447.91
831.85	1370.09
831.92	1384.43
831.99	1357.80
832.07	1368.04
832.14	1423.34
832.21	1419.24
832.28	1355.76
832.35	1439.72
832.42	1380.33
832.49	1345.52
832.56	1476.59
832.63	1447.91
832.71	1411.05
832.78	1415.15
832.85	1421.29
832.92	1488.87
832.99	1437.67
833.06	1343.47
833.13	1396.71
833.20	1366.00
833.27	1470.44
833.34	1347.56
833.42	1437.67
833.49	1361.90
833.56	1406.95
833.63	1429.48
833.70	1320.94
833.77	1347.56
833.84	1378.28
833.91	1341.42
833.98	1392.62
834.05	1370.09
834.12	1417.19
834.20	1275.88
834.27	1476.59
834.34	1529.83
834.41	1492.97
834.48	1492.97
834.55	1480.68
834.62	1390.57
834.69	1396.71
834.76	1419.24
834.83	1368.04
834.90	1507.30
834.97	1431.53
835.04	1402.86
835.11	1404.91
835.18	1421.29
835.26	1363.95
835.33	1456.11
835.40	1439.72
835.47	1370.09
835.54	1337.32
835.61	1460.20
835.68	1370.09
835.75	1452.01
835.82	1435.63
835.89	1398.76
835.96	1492.97
836.03	1429.48
836.10	1333.23
836.17	1347.56
836.24	1368.04
836.31	1404.91
836.38	1431.53
836.45	1339.37
836.52	1443.82
836.59	1452.01
836.67	1386.47
836.74	1429.48
836.81	1404.91
836.88	1452.01
836.95	1427.43
837.02	1390.57
837.09	1327.08
837.16	1355.76
837.23	1427.43
837.30	1398.76
837.37	1380.33
837.44	1392.62
837.51	1419.24
837.58	1439.72
837.65	1515.50
837.72	1564.65
837.79	1845.22
837.86	1806.31
837.93	1961.95
838.00	1941.47
838.07	1656.81
838.14	1710.05
838.21	1656.81
838.28	1691.62
838.35	1738.73
838.42	1703.91
838.49	1640.42
838.56	1652.71
838.63	1599.46
838.70	1515.50
838.77	1566.70
838.84	1425.39
838.91	1449.96
838.98	1576.94
839.05	1523.69
839.12	1478.63
839.19	1368.04
839.26	1400.81
839.33	1349.61
839.40	1349.61
839.47	1404.91
839.54	1419.24
839.61	1349.61
839.68	1441.77
839.75	1462.25
839.82	1390.57
839.89	1519.59
839.96	1423.34
840.03	1349.61
840.10	1548.26
840.17	1349.61
840.24	1394.67
840.31	1474.54
840.38	1398.76
840.45	1374.19
840.52	1452.01
840.59	1374.19
840.66	1452.01
840.73	1374.19
840.80	1452.01
840.87	1359.85
840.94	1484.78
841.01	1556.46
841.07	1415.15
841.14	1394.67
841.21	1476.59
841.28	1361.90
841.35	1372.14
841.42	1388.52
841.49	1427.43
841.56	1441.77
841.63	1372.14
841.70	1392.62
841.77	1404.91
841.84	1492.97
841.91	1480.68
841.98	1488.87
842.05	1425.39
842.12	1452.01
842.19	1488.87
842.26	1546.22
842.33	1419.24
842.40	1472.49
842.46	1400.81
842.53	1458.15
842.60	1456.11
842.67	1441.77
842.74	1390.57
842.81	1447.91
842.88	1400.81
842.95	1421.29
843.02	1392.62
843.09	1331.18
843.16	1433.58
843.23	1421.29
843.30	1353.71
843.37	1421.29
843.43	1495.02
843.50	1443.82
843.57	1425.39
843.64	1480.68
843.71	1503.21
843.78	1413.10
843.85	1427.43
843.92	1415.15
843.99	1492.97
844.06	1466.35
844.13	1443.82
844.20	1394.67
844.26	1337.32
844.33	1380.33
844.40	1282.03
844.47	1447.91
844.54	1314.80
844.61	1484.78
844.68	1409.00
844.75	1417.19
844.82	1458.15
844.89	1447.91
844.95	1421.29
845.02	1390.57
845.09	1435.63
845.16	1464.30
845.23	1427.43
845.30	1382.38
845.37	1359.85
845.44	1308.65
845.51	1339.37
845.57	1376.24
845.64	1427.43
845.71	1513.45
845.78	1409.00
845.85	1396.71
845.92	1445.87
845.99	1439.72
846.06	1433.58
846.12	1361.90
846.19	1374.19
846.26	1447.91
846.33	1550.31
846.40	1472.49
846.47	1404.91
846.54	1482.73
846.60	1345.52
846.67	1433.58
846.74	1445.87
846.81	1404.91
846.88	1443.82
846.95	1402.86
847.02	1343.47
847.09	1376.24
847.15	1333.23
847.22	1390.57
847.29	1452.01
847.36	1394.67
847.43	1368.04
847.50	1400.81
847.56	1400.81
847.63	1322.99
847.70	1417.19
847.77	1384.43
847.84	1439.72
847.91	1396.71
847.98	1458.15
848.04	1462.25
848.11	1370.09
848.18	1411.05
848.25	1386.47
848.32	1372.14
848.39	1505.26
848.45	1400.81
848.52	1443.82
848.59	1468.39
848.66	1429.48
848.73	1411.05
848.80	1366.00
848.86	1368.04
848.93	1312.75
849.00	1449.96
849.07	1533.93
849.14	1384.43
849.20	1441.77
849.27	1398.76
849.34	1435.63
849.41	1353.71
849.48	1503.21
849.55	1497.07
849.61	1437.67
849.68	1519.59
849.75	1546.22
849.82	1671.14
849.89	1544.17
849.95	1574.89
850.02	1591.27
850.09	1640.42
850.16	1478.63
850.23	1544.17
850.29	1554.41
850.36	1587.18
850.43	1423.34
850.50	1431.53
850.57	1474.54
850.63	1429.48
850.70	1452.01
850.77	1413.10
850.84	1439.72
850.91	1374.19
850.97	1433.58
851.04	1470.44
851.11	1398.76
851.18	1423.34
851.24	1476.59
851.31	1495.02
851.38	1374.19
851.45	1468.39
851.52	1462.25
851.58	1433.58
851.65	1363.95
851.72	1363.95
851.79	1445.87
851.85	1337.32
851.92	1445.87
851.99	1452.01
852.06	1318.89
852.12	1445.87
852.19	1376.24
852.26	1538.02
852.33	1484.78
852.40	1353.71
852.46	1327.08
852.53	1345.52
852.60	1507.30
852.67	1452.01
852.73	1349.61
852.80	1486.83
852.87	1349.61
852.94	1443.82
853.00	1447.91
853.07	1478.63
853.14	1388.52
853.21	1486.83
853.27	1345.52
853.34	1355.76
853.41	1419.24
853.48	1445.87
853.54	1374.19
853.61	1462.25
853.68	1419.24
853.75	1466.35
853.81	1398.76
853.88	1249.26
853.95	1398.76
854.01	1388.52
854.08	1492.97
854.15	1415.15
854.22	1423.34
854.28	1423.34
854.35	1320.94
854.42	1398.76
854.49	1398.76
854.55	1423.34
854.62	1378.28
854.69	1331.18
854.75	1480.68
854.82	1411.05
854.89	1409.00
854.96	1402.86
855.02	1511.40
855.09	1429.48
855.16	1368.04
855.22	1417.19
855.29	1378.28
855.36	1445.87
855.43	1474.54
855.49	1454.06
855.56	1327.08
855.63	1398.76
855.69	1423.34
855.76	1404.91
855.83	1441.77
855.89	1415.15
855.96	1202.16
856.03	1345.52
856.10	1464.30
856.16	1439.72
856.23	1425.39
856.30	1394.67
856.36	1325.04
856.43	1411.05
856.50	1400.81
856.56	1359.85
856.63	1406.95
856.70	1376.24
856.76	1396.71
856.83	1550.31
856.90	1396.71
856.96	1343.47
857.03	1329.13
857.10	1390.57
857.16	1378.28
857.23	1372.14
857.30	1452.01
857.36	1431.53
857.43	1466.35
857.50	1415.15
857.56	1312.75
857.63	1331.18
857.70	1411.05
857.76	1413.10
857.83	1366.00
857.90	1409.00
857.96	1419.24
858.03	1339.37
858.10	1419.24
858.16	1406.95
858.23	1374.19
858.30	1398.76
858.36	1384.43
858.43	1474.54
858.50	1370.09
858.56	1568.74
858.63	1425.39
858.70	1480.68
858.76	1288.17
858.83	1390.57
858.90	1361.90
858.96	1447.91
859.03	1388.52
859.09	1460.20
859.16	1396.71
859.23	1398.76
859.29	1460.20
859.36	1427.43
859.43	1478.63
859.49	1429.48
859.56	1464.30
859.63	1366.00
859.69	1482.73
859.76	1476.59
859.82	1458.15
859.89	1474.54
859.96	1423.34
860.02	1431.53
860.09	1460.20
860.15	1544.17
860.22	1472.49
860.29	1411.05
860.35	1443.82
860.42	1492.97
860.49	1445.87
860.55	1445.87
860.62	1437.67
860.68	1468.39
860.75	1349.61
>>>>>End Processed Spectral Data<<<<<
